Energy(eV) Total_DOS
-16.530070 0.000000
-16.511570 0.000000
-16.493070 0.000000
-16.474670 0.000000
-16.456170 0.000000
-16.437670 0.000000
-16.419270 0.000000
-16.400770 0.000000
-16.382270 0.000000
-16.363870 0.000000
-16.345370 0.000000
-16.326870 0.000000
-16.308370 0.000000
-16.289970 0.000000
-16.271470 0.000000
-16.252970 0.000000
-16.234570 0.000000
-16.216070 0.000000
-16.197570 0.000000
-16.179170 0.000000
-16.160670 0.000000
-16.142170 0.000000
-16.123770 0.000000
-16.105270 0.000000
-16.086770 0.000000
-16.068270 0.000000
-16.049870 0.000000
-16.031370 0.000000
-16.012870 0.000000
-15.994470 0.000000
-15.975970 0.000000
-15.957470 0.000000
-15.939070 0.000000
-15.920570 0.000000
-15.902070 0.000000
-15.883670 0.000000
-15.865170 0.000000
-15.846670 0.000000
-15.828170 0.000000
-15.809770 0.000000
-15.791270 0.000000
-15.772770 0.000000
-15.754370 0.000000
-15.735870 0.000000
-15.717370 0.000000
-15.698970 0.000000
-15.680470 0.000000
-15.661970 0.000000
-15.643570 0.000000
-15.625070 0.000000
-15.606570 0.000000
-15.588070 0.000000
-15.569670 0.000000
-15.551170 0.000000
-15.532670 0.000000
-15.514270 0.000000
-15.495770 0.000000
-15.477270 0.000000
-15.458870 0.000000
-15.440370 0.000000
-15.421870 0.000000
-15.403470 0.000000
-15.384970 0.000000
-15.366470 0.000000
-15.347970 0.000000
-15.329570 0.000000
-15.311070 0.000000
-15.292570 0.000000
-15.274170 0.000000
-15.255670 0.000000
-15.237170 0.000000
-15.218770 0.000000
-15.200270 0.000000
-15.181770 0.000000
-15.163370 0.000000
-15.144870 0.000000
-15.126370 0.000000
-15.107870 0.000000
-15.089470 0.000000
-15.070970 0.000000
-15.052470 0.000000
-15.034070 0.000000
-15.015570 0.000000
-14.997070 0.000000
-14.978670 0.000000
-14.960170 0.000000
-14.941670 0.000000
-14.923270 0.000000
-14.904770 0.000000
-14.886270 0.000000
-14.867770 0.000000
-14.849370 11.317900
-14.830870 58.805500
-14.812370 20.758900
-14.793970 8.793600
-14.775470 3.847400
-14.756970 19.389900
-14.738570 187.025900
-14.720070 8.939000
-14.701570 105.884300
-14.683170 68.658400
-14.664670 0.000000
-14.646170 0.000000
-14.627670 0.000000
-14.609270 0.000000
-14.590770 0.000000
-14.572270 0.000000
-14.553870 0.000000
-14.535370 0.000000
-14.516870 0.000000
-14.498470 0.000000
-14.479970 0.000000
-14.461470 0.000000
-14.443070 0.000000
-14.424570 0.000000
-14.406070 0.000000
-14.387570 0.000000
-14.369170 0.000000
-14.350670 0.000000
-14.332170 0.000000
-14.313770 0.000000
-14.295270 0.000000
-14.276770 0.000000
-14.258370 0.000000
-14.239870 0.000000
-14.221370 0.000000
-14.202970 0.000000
-14.184470 0.000000
-14.165970 0.000000
-14.147470 0.000000
-14.129070 0.000000
-14.110570 0.000000
-14.092070 0.000000
-14.073670 0.000000
-14.055170 0.000000
-14.036670 0.000000
-14.018270 0.000000
-13.999770 0.000000
-13.981270 0.000000
-13.962770 0.000000
-13.944370 0.000000
-13.925870 0.000000
-13.907370 0.000000
-13.888970 0.000000
-13.870470 0.000000
-13.851970 0.000000
-13.833570 0.000000
-13.815070 0.000000
-13.796570 0.000000
-13.778170 0.000000
-13.759670 0.000000
-13.741170 0.000000
-13.722670 0.000000
-13.704270 0.000000
-13.685770 0.000000
-13.667270 0.000000
-13.648870 0.000000
-13.630370 0.000000
-13.611870 0.000000
-13.593470 0.000000
-13.574970 0.000000
-13.556470 0.000000
-13.538070 0.000000
-13.519570 0.000000
-13.501070 0.000000
-13.482570 0.000000
-13.464170 0.000000
-13.445670 0.000000
-13.427170 0.000000
-13.408770 0.000000
-13.390270 0.000000
-13.371770 0.000000
-13.353370 0.000000
-13.334870 0.000000
-13.316370 0.000000
-13.297970 0.000000
-13.279470 0.000000
-13.260970 0.000000
-13.242470 0.000000
-13.224070 0.000000
-13.205570 0.000000
-13.187070 0.000000
-13.168670 0.000000
-13.150170 0.000000
-13.131670 0.000000
-13.113270 0.000000
-13.094770 0.000000
-13.076270 0.000000
-13.057870 0.000000
-13.039370 0.000000
-13.020870 0.000000
-13.002370 0.000000
-12.983970 0.000000
-12.965470 0.000000
-12.946970 0.000000
-12.928570 0.000000
-12.910070 0.000000
-12.891570 0.000000
-12.873170 0.000000
-12.854670 0.000000
-12.836170 0.000000
-12.817770 0.000000
-12.799270 0.000000
-12.780770 0.000000
-12.762270 0.000000
-12.743870 0.000000
-12.725370 0.000000
-12.706870 0.000000
-12.688470 0.000000
-12.669970 0.000000
-12.651470 0.000000
-12.633070 0.000000
-12.614570 0.000000
-12.596070 0.000000
-12.577670 0.000000
-12.559170 0.000000
-12.540670 0.000000
-12.522170 0.000000
-12.503770 0.000000
-12.485270 0.000000
-12.466770 0.000000
-12.448370 0.000000
-12.429870 0.000000
-12.411370 0.000000
-12.392970 0.000000
-12.374470 0.000000
-12.355970 0.007500
-12.337570 0.056600
-12.319070 0.082600
-12.300570 0.099800
-12.282070 0.120000
-12.263670 0.141700
-12.245170 0.157400
-12.226670 0.162800
-12.208270 0.173400
-12.189770 0.186000
-12.171270 0.198800
-12.152870 0.212000
-12.134370 0.225600
-12.115870 0.232400
-12.097470 0.241000
-12.078970 0.249400
-12.060470 0.257700
-12.041970 0.266700
-12.023570 0.276500
-12.005070 0.286800
-11.986570 0.297200
-11.968170 0.307600
-11.949670 0.315700
-11.931170 0.321800
-11.912770 0.329800
-11.894270 0.338000
-11.875770 0.346100
-11.857370 0.354400
-11.838870 0.362800
-11.820370 0.371700
-11.801870 0.380800
-11.783470 0.390000
-11.764970 0.399300
-11.746470 0.407300
-11.728070 0.415200
-11.709570 0.423100
-11.691070 0.431000
-11.672670 0.439200
-11.654170 0.447800
-11.635670 0.456500
-11.617270 0.465300
-11.598770 0.474200
-11.580270 0.483200
-11.561770 0.492400
-11.543370 0.501700
-11.524870 0.511200
-11.506370 0.520500
-11.487970 0.529600
-11.469470 0.539100
-11.450970 0.548800
-11.432570 0.558500
-11.414070 0.568400
-11.395570 0.578600
-11.377070 0.589000
-11.358670 0.599600
-11.340170 0.610300
-11.321670 0.621300
-11.303270 0.632300
-11.284770 0.643600
-11.266270 0.655000
-11.247870 0.667100
-11.229370 0.680000
-11.210870 0.693300
-11.192470 0.706900
-11.173970 0.720900
-11.155470 0.735300
-11.136970 0.750000
-11.118570 0.765100
-11.100070 0.780800
-11.081570 0.797000
-11.063170 0.813800
-11.044670 0.831000
-11.026170 0.848700
-11.007770 0.866800
-10.989270 0.885600
-10.970770 0.907900
-10.952370 0.932800
-10.933870 0.958900
-10.915370 0.986900
-10.896870 1.017300
-10.878470 1.049700
-10.859970 1.083900
-10.841470 1.123500
-10.823070 1.170700
-10.804570 1.224400
-10.786070 1.284700
-10.767670 1.407700
-10.749170 1.498800
-10.730670 1.460800
-10.712270 1.537600
-10.693770 1.567000
-10.675270 1.530500
-10.656770 1.526400
-10.638370 1.534900
-10.619870 1.525800
-10.601370 1.513700
-10.582970 1.498600
-10.564470 1.495200
-10.545970 1.493400
-10.527570 1.499600
-10.509070 1.505100
-10.490570 1.510900
-10.472170 1.510100
-10.453670 1.510000
-10.435170 1.514200
-10.416670 1.513600
-10.398270 1.514600
-10.379770 1.517200
-10.361270 1.519400
-10.342870 1.521300
-10.324370 1.525900
-10.305870 1.544400
-10.287470 1.565000
-10.268970 1.576200
-10.250470 1.587800
-10.232070 1.600800
-10.213570 1.628100
-10.195070 1.653100
-10.176570 1.699300
-10.158170 1.763900
-10.139670 1.811800
-10.121170 1.861600
-10.102770 2.092100
-10.084270 2.582200
-10.065770 1.232400
-10.047370 0.513600
-10.028870 0.000000
-10.010370 0.000000
-9.991970 0.000000
-9.973470 0.000000
-9.954970 0.000000
-9.936470 0.000000
-9.918070 0.000000
-9.899570 0.000000
-9.881070 0.000000
-9.862670 0.000000
-9.844170 0.000000
-9.825670 0.000000
-9.807270 0.000000
-9.788770 0.000000
-9.770270 0.000000
-9.751870 0.000000
-9.733370 0.000000
-9.714870 0.000000
-9.696370 0.000000
-9.677970 0.000000
-9.659470 0.000000
-9.640970 0.000000
-9.622570 0.000000
-9.604070 0.000000
-9.585570 0.000000
-9.567170 0.000000
-9.548670 0.000000
-9.530170 0.000000
-9.511770 0.000000
-9.493270 0.000000
-9.474770 0.000000
-9.456270 0.000000
-9.437870 0.000000
-9.419370 0.000000
-9.400870 0.000000
-9.382470 0.000000
-9.363970 0.000000
-9.345470 0.000000
-9.327070 0.000000
-9.308570 0.000000
-9.290070 0.000000
-9.271670 0.000000
-9.253170 0.000000
-9.234670 0.000000
-9.216170 0.000000
-9.197770 0.000000
-9.179270 0.000000
-9.160770 0.000000
-9.142370 0.000000
-9.123870 0.000000
-9.105370 0.000000
-9.086970 0.000000
-9.068470 0.000000
-9.049970 0.000000
-9.031470 0.000000
-9.013070 0.000000
-8.994570 0.000000
-8.976070 0.000000
-8.957670 0.000000
-8.939170 0.000000
-8.920670 0.000000
-8.902270 0.000000
-8.883770 0.000000
-8.865270 0.000000
-8.846870 0.000000
-8.828370 0.000000
-8.809870 0.000000
-8.791370 0.000000
-8.772970 0.000000
-8.754470 0.000000
-8.735970 0.000000
-8.717570 0.000000
-8.699070 0.000000
-8.680570 0.000000
-8.662170 0.000000
-8.643670 0.000000
-8.625170 0.000000
-8.606770 0.000000
-8.588270 0.000000
-8.569770 0.000000
-8.551270 0.000000
-8.532870 0.000000
-8.514370 0.000000
-8.495870 0.000000
-8.477470 0.000000
-8.458970 0.000000
-8.440470 0.000000
-8.422070 0.000000
-8.403570 0.000000
-8.385070 0.000000
-8.366670 0.000000
-8.348170 0.000000
-8.329670 0.000000
-8.311170 0.000000
-8.292770 0.000000
-8.274270 0.000000
-8.255770 0.000000
-8.237370 0.000000
-8.218870 0.000000
-8.200370 0.000000
-8.181970 0.000000
-8.163470 0.000000
-8.144970 0.000000
-8.126570 0.000000
-8.108070 0.000000
-8.089570 0.000000
-8.071070 0.000000
-8.052670 0.000000
-8.034170 0.000000
-8.015670 0.000000
-7.997270 0.000000
-7.978770 0.000000
-7.960270 0.000000
-7.941870 0.000000
-7.923370 0.000000
-7.904870 0.000000
-7.886470 0.000000
-7.867970 0.000000
-7.849470 0.000000
-7.830970 0.000000
-7.812570 0.000000
-7.794070 0.000000
-7.775570 0.000000
-7.757170 0.000000
-7.738670 0.000000
-7.720170 0.000000
-7.701770 0.000000
-7.683270 0.000000
-7.664770 0.000000
-7.646370 0.000000
-7.627870 0.000000
-7.609370 0.000000
-7.590870 0.000000
-7.572470 0.000000
-7.553970 0.000000
-7.535470 0.000000
-7.517070 0.000000
-7.498570 0.000000
-7.480070 0.000000
-7.461670 0.000000
-7.443170 0.000000
-7.424670 0.000000
-7.406270 0.000000
-7.387770 0.000000
-7.369270 0.000000
-7.350770 0.000000
-7.332370 0.000000
-7.313870 0.000000
-7.295370 0.000000
-7.276970 0.000000
-7.258470 0.000000
-7.239970 0.000000
-7.221570 0.000000
-7.203070 0.000000
-7.184570 0.000000
-7.166170 0.000000
-7.147670 0.000000
-7.129170 0.000000
-7.110670 0.000000
-7.092270 0.000000
-7.073770 0.000000
-7.055270 0.000000
-7.036870 0.000000
-7.018370 0.000000
-6.999870 0.000000
-6.981470 0.000000
-6.962970 0.000000
-6.944470 0.000000
-6.926070 0.000000
-6.907570 0.000000
-6.889070 0.000000
-6.870570 0.000000
-6.852170 0.000000
-6.833670 0.000000
-6.815170 0.000000
-6.796770 0.000000
-6.778270 0.000000
-6.759770 0.000000
-6.741370 0.000000
-6.722870 0.000000
-6.704370 0.000000
-6.685870 0.000000
-6.667470 0.000000
-6.648970 0.000000
-6.630470 0.000000
-6.612070 0.000000
-6.593570 0.000000
-6.575070 0.040000
-6.556670 0.175200
-6.538170 0.362300
-6.519670 0.435500
-6.501270 0.518700
-6.482770 0.656700
-6.464270 0.876100
-6.445770 1.001400
-6.427370 1.292300
-6.408870 1.733300
-6.390370 1.663000
-6.371970 1.733300
-6.353470 1.813300
-6.334970 1.961700
-6.316570 2.176400
-6.298070 2.601100
-6.279570 2.838500
-6.261170 4.002100
-6.242670 3.874300
-6.224170 2.805400
-6.205670 2.322000
-6.187270 2.094800
-6.168770 1.924900
-6.150270 1.781500
-6.131870 1.655600
-6.113370 1.545100
-6.094870 1.451800
-6.076470 1.376200
-6.057970 1.307300
-6.039470 1.242400
-6.021070 1.175900
-6.002570 1.118600
-5.984070 1.075500
-5.965570 1.039900
-5.947170 1.006800
-5.928670 0.976200
-5.910170 0.947800
-5.891770 0.920700
-5.873270 0.894400
-5.854770 0.869100
-5.836370 0.844600
-5.817870 0.820600
-5.799370 0.796400
-5.780970 0.772100
-5.762470 0.748600
-5.743970 0.727000
-5.725470 0.707000
-5.707070 0.684200
-5.688570 0.669600
-5.670070 0.657500
-5.651670 0.645600
-5.633170 0.634000
-5.614670 0.622500
-5.596270 0.611100
-5.577770 0.599900
-5.559270 0.588800
-5.540870 0.577900
-5.522370 0.567100
-5.503870 0.556100
-5.485370 0.545100
-5.466970 0.534400
-5.448470 0.524100
-5.429970 0.514000
-5.411570 0.504000
-5.393070 0.494100
-5.374570 0.484400
-5.356170 0.472100
-5.337670 0.461100
-5.319170 0.452400
-5.300770 0.445200
-5.282270 0.439200
-5.263770 0.433500
-5.245270 0.427800
-5.226870 0.422100
-5.208370 0.416500
-5.189870 0.410800
-5.171470 0.405200
-5.152970 0.399600
-5.134470 0.394000
-5.116070 0.388500
-5.097570 0.383000
-5.079070 0.377600
-5.060670 0.372300
-5.042170 0.366900
-5.023670 0.361600
-5.005170 0.356000
-4.986770 0.350200
-4.968270 0.344100
-4.949770 0.337900
-4.931370 0.332000
-4.912870 0.326300
-4.894370 0.320900
-4.875970 0.315800
-4.857470 0.309200
-4.838970 0.303500
-4.820570 0.300200
-4.802070 0.297000
-4.783570 0.293900
-4.765070 0.290700
-4.746670 0.287600
-4.728170 0.284500
-4.709670 0.281400
-4.691270 0.278300
-4.672770 0.275200
-4.654270 0.272000
-4.635870 0.268900
-4.617370 0.265700
-4.598870 0.262500
-4.580470 0.259300
-4.561970 0.255800
-4.543470 0.252300
-4.524970 0.248800
-4.506570 0.245400
-4.488070 0.242000
-4.469570 0.238700
-4.451170 0.235400
-4.432670 0.232100
-4.414170 0.228700
-4.395770 0.225400
-4.377270 0.222200
-4.358770 0.218300
-4.340270 0.213200
-4.321870 0.209700
-4.303370 0.206600
-4.284870 0.203900
-4.266470 0.201600
-4.247970 0.199600
-4.229470 0.197700
-4.211070 0.195800
-4.192570 0.193800
-4.174070 0.191800
-4.155670 0.189800
-4.137170 0.187800
-4.118670 0.185800
-4.100170 0.183800
-4.081770 0.181800
-4.063270 0.179800
-4.044770 0.177800
-4.026370 0.175800
-4.007870 0.173900
-3.989370 0.171900
-3.970970 0.169900
-3.952470 0.167900
-3.933970 0.165800
-3.915570 0.163800
-3.897070 0.161600
-3.878570 0.159400
-3.860070 0.157000
-3.841670 0.154500
-3.823170 0.151900
-3.804670 0.149500
-3.786270 0.147100
-3.767770 0.144800
-3.749270 0.142600
-3.730870 0.140500
-3.712370 0.138400
-3.693870 0.198900
-3.675470 0.412400
-3.656970 0.524800
-3.638470 0.599000
-3.619970 0.670500
-3.601570 0.754800
-3.583070 0.860300
-3.564570 0.961700
-3.546170 1.058100
-3.527670 1.140100
-3.509170 1.313500
-3.490770 1.564600
-3.472270 1.555300
-3.453770 1.511800
-3.435370 1.507300
-3.416870 1.502000
-3.398370 1.477400
-3.379870 1.394700
-3.361470 1.376900
-3.342970 1.354400
-3.324470 1.324000
-3.306070 1.285100
-3.287570 1.254200
-3.269070 1.231400
-3.250670 1.216600
-3.232170 1.211200
-3.213670 1.368300
-3.195270 1.200600
-3.176770 1.164000
-3.158270 1.157200
-3.139770 1.149600
-3.121370 1.141200
-3.102870 1.131100
-3.084370 1.116600
-3.065970 1.100100
-3.047470 1.085000
-3.028970 1.074400
-3.010570 1.064000
-2.992070 1.125500
-2.973570 1.135400
-2.955170 1.159000
-2.936670 1.283400
-2.918170 1.156100
-2.899670 1.197500
-2.881270 1.213200
-2.862770 1.181100
-2.844270 1.192700
-2.825870 1.205700
-2.807370 1.220500
-2.788870 1.235800
-2.770470 1.299800
-2.751970 1.258800
-2.733470 1.271600
-2.715070 1.280000
-2.696570 1.286600
-2.678070 1.302000
-2.659570 1.319500
-2.641170 1.437800
-2.622670 1.413600
-2.604170 1.468500
-2.585770 1.532300
-2.567270 1.541900
-2.548770 1.539200
-2.530370 1.606500
-2.511870 1.707300
-2.493370 1.758200
-2.474970 1.739800
-2.456470 1.728700
-2.437970 1.779500
-2.419470 1.722800
-2.401070 1.678800
-2.382570 1.672800
-2.364070 1.671200
-2.345670 1.672100
-2.327170 1.673100
-2.308670 1.670900
-2.290270 1.659600
-2.271770 1.659100
-2.253270 1.658600
-2.234870 1.655500
-2.216370 1.649500
-2.197870 1.640700
-2.179370 1.630100
-2.160970 1.621300
-2.142470 1.612100
-2.123970 1.602400
-2.105570 1.593700
-2.087070 1.588000
-2.068570 1.584200
-2.050170 1.586900
-2.031670 1.594900
-2.013170 1.594200
-1.994670 1.590900
-1.976270 1.586100
-1.957770 1.580300
-1.939270 1.573400
-1.920870 1.565600
-1.902370 1.556800
-1.883870 1.547200
-1.865470 1.539000
-1.846970 1.532500
-1.828470 1.526900
-1.810070 1.521800
-1.791570 1.516600
-1.773070 1.510900
-1.754570 1.505900
-1.736170 1.502600
-1.717670 1.503500
-1.699170 1.498300
-1.680770 1.491700
-1.662270 1.484200
-1.643770 1.476100
-1.625370 1.467900
-1.606870 1.462100
-1.588370 1.460600
-1.569970 1.457900
-1.551470 1.454600
-1.532970 1.451200
-1.514470 1.447500
-1.496070 1.443800
-1.477570 1.440300
-1.459070 1.438600
-1.440670 1.437800
-1.422170 1.437700
-1.403670 1.438400
-1.385270 1.435800
-1.366770 1.429600
-1.348270 1.422100
-1.329870 1.415700
-1.311370 1.410300
-1.292870 1.406400
-1.274370 1.404400
-1.255970 1.403700
-1.237470 1.402100
-1.218970 1.396100
-1.200570 1.389000
-1.182070 1.381400
-1.163570 1.375200
-1.145170 1.384200
-1.126670 1.393800
-1.108170 1.362300
-1.089770 1.297400
-1.071270 1.205900
-1.052770 1.148200
-1.034270 1.073600
-1.015870 1.026400
-0.997370 0.989300
-0.978870 0.951600
-0.960470 0.914600
-0.941970 0.878100
-0.923470 0.842100
-0.905070 0.812600
-0.886570 0.789100
-0.868070 0.765100
-0.849670 0.742300
-0.831170 0.719200
-0.812670 0.695600
-0.794170 0.671800
-0.775770 0.651500
-0.757270 0.632500
-0.738770 0.614200
-0.720370 0.596500
-0.701870 0.579700
-0.683370 0.563600
-0.664970 0.548300
-0.646470 0.534800
-0.627970 0.521400
-0.609570 0.506700
-0.591070 0.491800
-0.572570 0.476400
-0.554070 0.460700
-0.535670 0.445200
-0.517170 0.430100
-0.498670 0.415300
-0.480270 0.400800
-0.461770 0.386400
-0.443270 0.373100
-0.424870 0.360800
-0.406370 0.349100
-0.387870 0.337600
-0.369470 0.324700
-0.350970 0.315800
-0.332470 0.308800
-0.313970 0.293700
-0.295570 0.278600
-0.277070 0.262900
-0.258570 0.247600
-0.240170 0.233200
-0.221670 0.218800
-0.203170 0.203400
-0.184770 0.183700
-0.166270 0.158700
-0.147770 0.138000
-0.129370 0.122400
-0.110870 0.111700
-0.092370 0.106000
-0.073870 0.105300
-0.055470 0.038600
-0.036970 0.012600
-0.018470 0.000800
-0.000070 0.000000
0.018430 0.000000
0.036930 0.000000
0.055330 0.000000
0.073830 0.000000
0.092330 0.000000
0.110730 0.000000
0.129230 0.000000
0.147730 0.000000
0.166230 0.000000
0.184630 0.000000
0.203130 0.000000
0.221630 0.000000
0.240030 0.000000
0.258530 0.000100
0.277030 0.000100
0.295430 0.000200
0.313930 0.000200
0.332430 0.000300
0.350930 0.000300
0.369330 0.000400
0.387830 0.000500
0.406330 0.000600
0.424730 0.000700
0.443230 0.000800
0.461730 0.000900
0.480130 0.001000
0.498630 0.001200
0.517130 0.001300
0.535530 0.001400
0.554030 0.001600
0.572530 0.001800
0.591030 0.001900
0.609430 0.002100
0.627930 0.002300
0.646430 0.002500
0.664830 0.002700
0.683330 0.002900
0.701830 0.003100
0.720230 0.003300
0.738730 0.003500
0.757230 0.003700
0.775630 0.004000
0.794130 0.004200
0.812630 0.004500
0.831130 0.004800
0.849530 0.005000
0.868030 0.005300
0.886530 0.007300
0.904930 0.011000
0.923430 0.015700
0.941930 0.021400
0.960330 0.027600
0.978830 0.034300
0.997330 0.041600
1.015730 0.049400
1.034230 0.057700
1.052730 0.066400
1.071230 0.075500
1.089630 0.085000
1.108130 0.094800
1.126630 0.105100
1.145030 0.115700
1.163530 0.126700
1.182030 0.138200
1.200430 0.150000
1.218930 0.160800
1.237430 0.162400
1.255830 0.168300
1.274330 0.175500
1.292830 0.182700
1.311330 0.190000
1.329730 0.198600
1.348230 0.208400
1.366730 0.219000
1.385130 0.230400
1.403630 0.242600
1.422130 0.255500
1.440530 0.269300
1.459030 0.283000
1.477530 0.296500
1.495930 0.317500
1.514430 0.350700
1.532930 0.394800
1.551430 0.437700
1.569830 0.478700
1.588330 0.515400
1.606830 0.549800
1.625230 0.579100
1.643730 0.607000
1.662230 0.632400
1.680630 0.654800
1.699130 0.674200
1.717630 0.692400
1.736030 0.713700
1.754530 0.744700
1.773030 0.778600
1.791530 0.808500
1.809930 0.839500
1.828430 0.870000
1.846930 0.900100
1.865330 0.929700
1.883830 0.958100
1.902330 0.985100
1.920730 1.011200
1.939230 1.036700
1.957730 1.061200
1.976130 1.085400
1.994630 1.111900
2.013130 1.142700
2.031630 1.174900
2.050030 1.206100
2.068530 1.235800
2.087030 1.268800
2.105430 1.307400
2.123930 1.350400
2.142430 1.388300
2.160830 1.423800
2.179330 1.461000
2.197830 1.500200
2.216230 1.541500
2.234730 1.600700
2.253230 1.744300
2.271730 1.885600
2.290130 1.976500
2.308630 2.053100
2.327130 2.112400
2.345530 2.160800
2.364030 2.218300
2.382530 2.268700
2.400930 2.238700
2.419430 2.178500
2.437930 2.112300
2.456330 2.037400
2.474830 1.947400
2.493330 1.827600
2.511830 1.717900
2.530230 1.657500
2.548730 1.597600
2.567230 1.550800
2.585630 1.518200
2.604130 1.478800
2.622630 1.430800
2.641030 1.380100
2.659530 1.332400
2.678030 1.286500
2.696430 1.244300
2.714930 1.203700
2.733430 1.164900
2.751930 1.115000
2.770330 1.056100
2.788830 1.033700
2.807330 1.022800
2.825730 1.015100
2.844230 1.009300
2.862730 0.992000
2.881130 0.965600
2.899630 0.939500
2.918130 0.929100
2.936630 0.915200
2.955030 0.899000
2.973530 0.881100
2.992030 0.860900
3.010430 0.845500
3.028930 0.849900
3.047430 0.879300
3.065830 0.943300
3.084330 0.927600
3.102830 0.925800
3.121230 0.969800
3.139730 1.118100
3.158230 1.032300
3.176730 0.938600
3.195130 0.938500
3.213630 0.954900
3.232130 0.957700
3.250530 0.961700
3.269030 0.966800
3.287530 0.968700
3.305930 0.929100
3.324430 0.848100
3.342930 0.866500
3.361330 0.810900
3.379830 0.793900
3.398330 0.791900
3.416830 0.790800
3.435230 0.795400
3.453730 0.807300
3.472230 0.818200
3.490630 0.824900
3.509130 0.827200
3.527630 0.825200
3.546030 0.820100
3.564530 0.820400
3.583030 0.841200
3.601430 0.862900
3.619930 0.883300
3.638430 0.892600
3.656930 0.890500
3.675330 0.877700
3.693830 0.854100
3.712330 0.828100
3.730730 0.825200
3.749230 0.804300
3.767730 0.812000
3.786130 0.838200
3.804630 0.846900
3.823130 0.841700
3.841530 0.837700
3.860030 0.835500
3.878530 0.834900
3.897030 0.833900
3.915430 0.834800
3.933930 0.838800
3.952430 0.844800
3.970830 0.851700
3.989330 0.857200
4.007830 0.861100
4.026230 0.865000
4.044730 0.869900
4.063230 0.900200
4.081630 0.940800
4.100130 0.989200
4.118630 1.044000
4.137130 1.105100
4.155530 1.171800
4.174030 1.305800
4.192530 1.450300
4.210930 1.596500
4.229430 1.757500
4.247930 1.908900
4.266330 2.060000
4.284830 2.211700
4.303330 2.315800
4.321730 2.379800
4.340230 2.420000
4.358730 2.385800
4.377230 2.315300
4.395630 5.520900
4.414130 2.002000
4.432630 1.945700
4.451030 1.895800
4.469530 1.853000
4.488030 1.811800
4.506430 1.773000
4.524930 1.729400
4.543430 1.675400
4.561830 1.611400
4.580330 1.509800
4.598830 1.374300
4.617330 1.257200
4.635730 1.194800
4.654230 1.254200
4.672730 1.306800
4.691130 1.321200
4.709630 1.312900
4.728130 1.284100
4.746530 1.253000
4.765030 1.223300
4.783530 1.196300
4.801930 1.171100
4.820430 1.148700
4.838930 1.127900
4.857430 1.112700
4.875830 1.102200
4.894330 1.093200
4.912830 1.085600
4.931230 1.079300
4.949730 1.075700
4.968230 1.074600
4.986630 1.073600
5.005130 1.068300
5.023630 1.062000
5.042030 1.057700
5.060530 1.064900
5.079030 1.106400
5.097530 1.226400
5.115930 1.248200
5.134430 1.266400
5.152930 1.285500
5.171330 1.300700
5.189830 1.345700
5.208330 1.390300
5.226730 1.455300
5.245230 1.545800
5.263730 1.651800
5.282230 1.728500
5.300630 1.768800
5.319130 1.794100
5.337630 1.800400
5.356030 1.806000
5.374530 1.791900
5.393030 1.743800
5.411430 1.662200
5.429930 1.676600
5.448430 1.696500
5.466830 1.750500
5.485330 1.825000
5.503830 1.859300
5.522330 1.864000
5.540730 1.814400
5.559230 1.751300
5.577730 1.722100
5.596130 1.697500
5.614630 1.671500
5.633130 1.632900
5.651530 1.621200
5.670030 1.555000
5.688530 1.476900
5.706930 1.438800
5.725430 1.416200
5.743930 1.404700
5.762430 1.397400
5.780830 1.394100
5.799330 1.403200
5.817830 1.414400
5.836230 1.410900
5.854730 1.404600
5.873230 1.395600
5.891630 1.386300
5.910130 1.375200
5.928630 1.359000
5.947030 1.333800
5.965530 1.300200
5.984030 1.269100
6.002530 1.389400
6.020930 1.238000
6.039430 1.184700
6.057930 1.173900
6.076330 1.160000
6.094830 1.144700
6.113330 1.126100
6.131730 1.103700
6.150230 1.077400
6.168730 1.047400
6.187130 1.013600
6.205630 0.976000
6.224130 0.935700
6.242630 0.904700
6.261030 0.874400
6.279530 0.879200
6.298030 0.872000
6.316430 0.869200
6.334930 0.871400
6.353430 0.875100
6.371830 0.879200
6.390330 0.883000
6.408830 0.886700
6.427230 0.890400
6.445730 0.893900
6.464230 0.897100
6.482730 0.899900
6.501130 0.903200
6.519630 0.916200
6.538130 0.927900
6.556530 0.934100
6.575030 0.934800
6.593530 0.931200
6.611930 0.920000
6.630430 0.901400
6.648930 0.882100
6.667330 0.867500
6.685830 0.854800
6.704330 0.844800
6.722830 0.838500
6.741230 0.838500
6.759730 0.841100
6.778230 0.846200
6.796630 0.852300
6.815130 0.858700
6.833630 0.865400
6.852030 0.872400
6.870530 0.879700
6.889030 0.887300
6.907430 0.895200
6.925930 0.903300
6.944430 0.911800
6.962930 0.920500
6.981330 0.929500
6.999830 0.943900
7.018330 0.974700
7.036730 1.017600
7.055230 1.055600
7.073730 1.086600
7.092130 1.108600
7.110630 1.127700
7.129130 1.146000
7.147530 1.166900
7.166030 1.189200
7.184530 1.213100
7.203030 1.239400
7.221430 1.274100
7.239930 1.325700
7.258430 1.422900
7.276830 1.571300
7.295330 1.734000
7.313830 1.718300
7.332230 1.696400
7.350730 1.653600
7.369230 1.597400
7.387630 1.598100
7.406130 1.393700
7.424630 1.268500
7.443130 1.162700
7.461530 1.078000
7.480030 1.049000
7.498530 1.032200
7.516930 1.014000
7.535430 0.997100
7.553930 0.984600
7.572330 0.972300
7.590830 0.960000
7.609330 0.948000
7.627830 0.937500
7.646230 0.930900
7.664730 0.935900
7.683230 0.950700
7.701630 0.970500
7.720130 0.976000
7.738630 0.977500
7.757030 1.001400
7.775530 1.040900
7.794030 1.086800
7.812430 1.152600
7.830930 1.342200
7.849430 0.680300
7.867930 0.699100
7.886330 0.747000
7.904830 0.737900
7.923330 0.753800
7.941730 0.781300
7.960230 0.830400
7.978730 0.887800
7.997130 0.946500
8.015630 1.000800
8.034130 1.049900
8.052530 1.094100
8.071030 1.136200
8.089530 1.161500
8.108030 1.144700
8.126430 1.116700
8.144930 1.107900
8.163430 1.117500
8.181830 1.134600
8.200330 1.095800
8.218830 1.099300
8.237230 1.112400
8.255730 1.125900
8.274230 1.137500
8.292630 1.145600
8.311130 1.150500
8.329630 1.154200
8.348130 1.161900
8.366530 1.164500
8.385030 1.165600
8.403530 1.165100
8.421930 1.208000
8.440430 1.271000
8.458930 1.204600
8.477330 1.184200
8.495830 1.194900
8.514330 1.210200
8.532730 1.228200
8.551230 1.260100
8.569730 1.255600
8.588230 1.174500
8.606630 1.162600
8.625130 1.157700
8.643630 1.158100
8.662030 1.157900
8.680530 1.178100
8.699030 1.229600
8.717430 1.302600
8.735930 1.324300
8.754430 1.320300
8.772830 1.310400
8.791330 1.304300
8.809830 1.302800
8.828330 1.305400
8.846730 1.306700
8.865230 1.306100
8.883730 1.306400
8.902130 1.349900
8.920630 1.347300
8.939130 1.342500
8.957530 1.339700
8.976030 1.335100
8.994530 1.342200
9.012930 1.353000
9.031430 1.369300
9.049930 1.386100
9.068430 1.400600
9.086830 1.412400
9.105330 1.421500
9.123830 1.425700
9.142230 1.428300
9.160730 1.429700
9.179230 1.430400
9.197630 1.433300
9.216130 1.442700
9.234630 1.457100
9.253030 1.472400
9.271530 1.491000
9.290030 1.509600
9.308530 1.533400
9.326930 1.558400
9.345430 1.591000
9.363930 1.623300
9.382330 1.649400
9.400830 1.668400
9.419330 1.681500
9.437730 1.690900
9.456230 1.818300
9.474730 1.749400
9.493130 1.663300
9.511630 1.615200
9.530130 1.557900
9.548630 1.511100
9.567030 1.490300
9.585530 1.486900
9.604030 1.489400
9.622430 1.482300
9.640930 1.461900
9.659430 1.446100
9.677830 1.440300
9.696330 1.433300
9.714830 1.426400
9.733230 1.419300
9.751730 1.412700
9.770230 1.406700
9.788730 1.401200
9.807130 1.395900
9.825630 1.391400
9.844130 1.388900
9.862530 1.387000
9.881030 1.362700
9.899530 1.357500
9.917930 1.350400
9.936430 1.346000
9.954930 1.340200
9.973430 1.334000
9.991830 1.361100
10.010330 1.359900
10.028830 1.343600
10.047230 1.330100
10.065730 1.318900
10.084230 1.309800
10.102630 1.302300
10.121130 1.295100
10.139630 1.287400
10.158030 1.282000
10.176530 1.281600
10.195030 1.281400
10.213530 1.282100
10.231930 1.285800
10.250430 1.292500
10.268930 1.303100
10.287330 1.297400
10.305830 1.267000
10.324330 1.224100
10.342730 1.222200
10.361230 1.258100
10.379730 1.338600
10.398130 1.476200
10.416630 1.218000
10.435130 1.153900
10.453630 1.088100
10.472030 1.041500
10.490530 0.978900
10.509030 0.920800
10.527430 0.917300
10.545930 0.915900
10.564430 0.916300
10.582830 0.917200
10.601330 0.918100
10.619830 0.919200
10.638230 0.929000
10.656730 0.986100
10.675230 1.023600
10.693730 1.041000
10.712130 1.025000
10.730630 1.009700
10.749130 1.004900
10.767530 1.005200
10.786030 1.008100
10.804530 1.015700
10.822930 1.023700
10.841430 1.028900
10.859930 1.031100
10.878330 1.030200
10.896830 1.026400
10.915330 1.022000
10.933830 1.022100
10.952230 1.031300
10.970730 1.046200
10.989230 1.063300
11.007630 1.083700
11.026130 1.108700
11.044630 1.133300
11.063030 1.153000
11.081530 1.170800
11.100030 1.192400
11.118430 1.217500
11.136930 1.246600
11.155430 1.281900
11.173930 1.289200
11.192330 1.348400
11.210830 1.408100
11.229330 1.473000
11.247730 1.539400
11.266230 1.608600
11.284730 1.626200
11.303130 1.617600
11.321630 1.579200
11.340130 1.592500
11.358530 1.600000
11.377030 1.601000
11.395530 1.599300
11.414030 1.601800
11.432430 1.600200
11.450930 1.595800
11.469430 1.591700
11.487830 1.588100
11.506330 1.585400
11.524830 1.597100
11.543230 1.608400
11.561730 1.615700
11.580230 1.634300
11.598630 1.649700
11.617130 1.636100
11.635630 1.618600
11.654130 1.617500
11.672530 1.629300
11.691030 1.638500
11.709530 1.631500
11.727930 1.625900
11.746430 1.620600
11.764930 1.615200
11.783330 1.617400
11.801830 1.657800
11.820330 1.748400
11.838730 1.768800
11.857230 1.533700
11.875730 1.430800
11.894230 1.425300
11.912630 1.289400
11.931130 1.246700
11.949630 1.225500
11.968030 1.182700
11.986530 1.173600
12.005030 1.164300
12.023430 1.152600
12.041930 1.125700
12.060430 1.087200
12.078830 1.074300
12.097330 1.087900
12.115830 1.080300
12.134330 1.045000
12.152730 1.030000
12.171230 1.200600
12.189730 1.477600
12.208130 1.416300
12.226630 1.432400
12.245130 1.433500
12.263530 1.433000
12.282030 1.500900
12.300530 1.492300
12.319030 1.471500
12.337430 1.502500
12.355930 1.545100
12.374430 1.589500
12.392830 1.627700
12.411330 1.664100
12.429830 1.693100
12.448230 1.717400
12.466730 1.749500
12.485230 1.748700
12.503630 1.759700
12.522130 1.783900
12.540630 1.820100
12.559130 1.870900
12.577530 2.024300
12.596030 2.164400
12.614530 2.144100
12.632930 2.236100
12.651430 2.337100
12.669930 2.367100
12.688330 2.379700
12.706830 2.394900
12.725330 2.460800
12.743730 2.533700
12.762230 2.607800
12.780730 2.681500
12.799230 2.850400
12.817630 3.625200
12.836130 2.442200
12.854630 2.205600
12.873030 2.021600
12.891530 1.871500
12.910030 1.770300
12.928430 1.683400
12.946930 1.591500
12.965430 1.512800
12.983830 1.446600
13.002330 1.389500
13.020830 1.341800
13.039330 1.305300
13.057730 1.278400
13.076230 1.260500
13.094730 1.254300
13.113130 1.260300
13.131630 1.264700
13.150130 1.264800
13.168530 1.261700
13.187030 1.255500
13.205530 1.247400
13.223930 1.236800
13.242430 1.222500
13.260930 1.203000
13.279430 1.188500
13.297830 1.191200
13.316330 1.207900
13.334830 1.215100
13.353230 1.224600
13.371730 1.236300
13.390230 1.237600
13.408630 1.242100
13.427130 1.252900
13.445630 1.270900
13.464030 1.298700
13.482530 1.271800
13.501030 1.229000
13.519530 1.241900
13.537930 1.235000
13.556430 1.262400
13.574930 1.301700
13.593330 1.345100
13.611830 1.388300
13.630330 1.403600
13.648730 1.479800
13.667230 1.463800
13.685730 1.435800
13.704130 1.400400
13.722630 1.387300
13.741130 1.396300
13.759630 1.408400
13.778030 1.423600
13.796530 1.441800
13.815030 1.463300
13.833430 1.501900
13.851930 1.563300
13.870430 1.608800
13.888830 1.637800
13.907330 1.638900
13.925830 1.617000
13.944230 1.572100
13.962730 1.535900
13.981230 1.539300
13.999730 1.565200
14.018130 1.477800
14.036630 1.461600
14.055130 1.455700
14.073530 1.447400
14.092030 1.435600
14.110530 1.422100
14.128930 1.405800
14.147430 1.388700
14.165930 1.387000
14.184330 1.389800
14.202830 1.323900
14.221330 1.312600
14.239830 1.313400
14.258230 1.318300
14.276730 1.326100
14.295230 1.340200
14.313630 1.361600
14.332130 1.390200
14.350630 1.407600
14.369030 1.405000
14.387530 1.393300
14.406030 1.385500
14.424430 1.382600
14.442930 1.384000
14.461430 1.384500
14.479930 1.385600
14.498330 1.389800
14.516830 1.396900
14.535330 1.405000
14.553730 1.414200
14.572230 1.426000
14.590730 1.442300
14.609130 1.468800
14.627630 1.505700
14.646130 1.535000
14.664530 1.539300
14.683030 1.519100
14.701530 1.491400
14.720030 1.450600
14.738430 1.396500
14.756930 1.365100
14.775430 1.357700
14.793830 1.286300
14.812330 1.213700
14.830830 1.140100
14.849230 1.083100
14.867730 1.046500
14.886230 1.029400
14.904730 1.034000
14.923130 0.914900
14.941630 0.906200
14.960130 0.896400
14.978530 0.884100
14.997030 0.870800
15.015530 0.854900
15.033930 0.840800
15.052430 0.829100
15.070930 0.819800
15.089330 0.814800
15.107830 0.814100
15.126330 0.817600
15.144830 0.825200
15.163230 0.836400
15.181730 0.850700
15.200230 0.861100
15.218630 0.863100
15.237130 0.857200
15.255630 0.860200
15.274030 0.880900
15.292530 0.899700
15.311030 0.940000
15.329430 1.002200
15.347930 1.092000
15.366430 1.198600
15.384930 1.307900
15.403330 1.460200
15.421830 1.610700
15.440330 1.821700
15.458730 2.078500
15.477230 2.176700
15.495730 2.211100
15.514130 2.232400
15.532630 2.238100
15.551130 2.206500
15.569530 2.122500
15.588030 2.001200
15.606530 1.858900
15.625030 1.797600
15.643430 1.782000
15.661930 1.784100
15.680430 1.792500
15.698830 1.799100
15.717330 1.817200
15.735830 1.835300
15.754230 1.845800
15.772730 1.837400
15.791230 1.818900
15.809630 1.810600
15.828130 1.807700
15.846630 1.808800
15.865130 1.823800
15.883530 1.851400
15.902030 1.833100
15.920530 1.816300
15.938930 1.799700
15.957430 1.781600
15.975930 1.769500
15.994330 1.778300
16.012830 1.883800
16.031330 1.866900
16.049730 1.780700
16.068230 1.683500
16.086730 1.590500
16.105230 1.512600
16.123630 1.424600
16.142130 1.365800
16.160630 1.333100
16.179030 1.309600
16.197530 1.327400
16.216030 1.378300
16.234430 1.364800
16.252930 1.346800
16.271430 1.353300
16.289830 1.319800
16.308330 1.269000
16.326830 1.274300
16.345330 1.285400
16.363730 1.288700
16.382230 1.292200
16.400730 1.292200
16.419130 1.301800
16.437630 1.316900
16.456130 1.339600
16.474530 1.358500
16.493030 1.374000
16.511530 1.387200
16.529930 1.399400
16.548430 1.410000
16.566930 1.417800
16.585430 1.449800
16.603830 1.519400
16.622330 1.589800
16.640830 1.581200
16.659230 1.577400
16.677730 1.558800
16.696230 1.549300
16.714630 1.514300
16.733130 1.478100
16.751630 1.459300
16.770030 1.458700
16.788530 1.475300
16.807030 1.489900
16.825530 1.504800
16.843930 1.532400
16.862430 1.673300
16.880930 1.641200
16.899330 1.681800
16.917830 1.649900
16.936330 1.630500
16.954730 1.682200
16.973230 1.737800
16.991730 1.718200
17.010130 1.829000
17.028630 1.687200
17.047130 1.559900
17.065630 1.490700
17.084030 1.461500
17.102530 1.435500
17.121030 1.412900
17.139430 1.417900
17.157930 1.390200
17.176430 1.354500
17.194830 1.339800
17.213330 1.339800
17.231830 1.342500
17.250330 1.351600
17.268730 1.367800
17.287230 1.388300
17.305730 1.413500
17.324130 1.443300
17.342630 1.487400
17.361130 1.548200
17.379530 1.622300
17.398030 1.680800
17.416530 1.698100
17.434930 1.742700
17.453430 1.784500
17.471930 1.812100
17.490430 1.811000
17.508830 1.779200
17.527330 1.742000
17.545830 1.710600
17.564230 1.683500
17.582730 1.644100
17.601230 1.633100
17.619630 1.621200
17.638130 1.561000
17.656630 1.454600
17.675030 1.339200
17.693530 1.246200
17.712030 1.183900
17.730530 1.126500
17.748930 1.073900
17.767430 1.026600
17.785930 0.978700
17.804330 0.932700
17.822830 0.893800
17.841330 0.858700
17.859730 0.911800
17.878230 1.018300
17.896730 0.787000
17.915130 0.650500
17.933630 0.591600
17.952130 0.550500
17.970630 0.524200
17.989030 0.500600
18.007530 0.478000
18.026030 0.455800
18.044430 0.433900
18.062930 0.410300
18.081430 0.384300
18.099830 0.355400
18.118330 0.323900
18.136830 0.291200
18.155230 0.262200
18.173730 0.237200
18.192230 0.217400
18.210730 0.204900
18.229130 0.194900
18.247630 0.187300
18.266130 0.182600
18.284530 0.182200
18.303030 0.173900
18.321530 0.159000
18.339930 0.140400
18.358430 0.130800
18.376930 0.122400
18.395330 0.113700
18.413830 0.105700
18.432330 0.098400
18.450830 0.090900
18.469230 0.083100
18.487730 0.075100
18.506230 0.066900
18.524630 0.061500
18.543130 0.060200
18.561630 0.057800
18.580030 0.054300
18.598530 0.049800
18.617030 0.044700
18.635430 0.039000
18.653930 0.032600
18.672430 0.025600
18.690930 0.018000
18.709330 0.009700
18.727830 0.000800
18.746330 0.000000
18.764730 0.000000
18.783230 0.000000
18.801730 0.000000
18.820130 0.000000
18.838630 0.000000
18.857130 0.000000
18.875530 0.000000
18.894030 0.000000
18.912530 0.000000
18.931030 0.000000
18.949430 0.000000
18.967930 0.000000
18.986430 0.000000
19.004830 0.000000
19.023330 0.000000
19.041830 0.000000
19.060230 0.000000
19.078730 0.000000
19.097230 0.000000
19.115630 0.000000
19.134130 0.000000
19.152630 0.000000
19.171130 0.000000
19.189530 0.000000
19.208030 0.000000
19.226530 0.000000
19.244930 0.000000
19.263430 0.000000
19.281930 0.000000
19.300330 0.000000
19.318830 0.000000
19.337330 0.000000
19.355730 0.000000
19.374230 0.000000
19.392730 0.000000
19.411230 0.000000
19.429630 0.000000
19.448130 0.000000
19.466630 0.000000
19.485030 0.000000
19.503530 0.000000
19.522030 0.000000
19.540430 0.000000
19.558930 0.000000
19.577430 0.000000
19.595930 0.000000
19.614330 0.000000
19.632830 0.000000
19.651330 0.000000
19.669730 0.000000
19.688230 0.000000
19.706730 0.000000
19.725130 0.000000
19.743630 0.000000
19.762130 0.000000
19.780530 0.000000
19.799030 0.000000
19.817530 0.000000
19.836030 0.000000
19.854430 0.000000
19.872930 0.000000
19.891430 0.000000
19.909830 0.000000
19.928330 0.000000
19.946830 0.000000
19.965230 0.000000
19.983730 0.000000
20.002230 0.000000
20.020630 0.000000
20.039130 0.000000
20.057630 0.000000
20.076130 0.000000
20.094530 0.000000
20.113030 0.000000
20.131530 0.000000
20.149930 0.000000
20.168430 0.000000
20.186930 0.000000
20.205330 0.000000
20.223830 0.000000
20.242330 0.000000
20.260730 0.000000
20.279230 0.000000
20.297730 0.000000
20.316230 0.000000
20.334630 0.000000
20.353130 0.000000
20.371630 0.000000
20.390030 0.000000
20.408530 0.000000
